# PL of Alq on glass AF45
# excitation 355 nm
# C121 measured HPO-Setup with SpectraScan
# TIB 11.06.2002
#
380	0.00800
382	0
384	0
386	0
388	0
390	0
392	0.0103
394	0.00658
396	0.00623
398	0
400	0
402	0.00795
404	0.00241
406	0.00182
408	0.00404
410	0.00225
412	0.00159
414	0.00381
416	0.00390
418	0.00221
420	0
422	0.00202
424	0.00345
426	0.00263
428	0.00226
430	0.00287
432	0.00269
434	0.00422
436	0.00493
438	0.00644
440	0.00864
442	0.0112
444	0.0133
446	0.0180
448	0.0218
450	0.0285
452	0.0378
454	0.0457
456	0.0546
458	0.0692
460	0.0822
462	0.0966
464	0.115
466	0.140
468	0.163
470	0.186
472	0.216
474	0.245
476	0.279
478	0.313
480	0.348
482	0.387
484	0.422
486	0.463
488	0.500
490	0.536
492	0.577
494	0.618
496	0.654
498	0.689
500	0.723
502	0.758
504	0.789
506	0.814
508	0.844
510	0.870
512	0.890
514	0.912
516	0.930
518	0.944
520	0.961
522	0.973
524	0.982
526	0.991
528	0.994
530	0.999
532	1.00
534	0.997
536	0.996
538	0.988
540	0.985
542	0.975
544	0.963
546	0.953
548	0.938
550	0.930
552	0.912
554	0.897
556	0.880
558	0.864
560	0.849
562	0.830
564	0.810
566	0.792
568	0.773
570	0.753
572	0.734
574	0.715
576	0.691
578	0.671
580	0.654
582	0.633
584	0.613
586	0.593
588	0.570
590	0.552
592	0.534
594	0.516
596	0.496
598	0.481
600	0.461
602	0.445
604	0.428
606	0.412
608	0.401
610	0.386
612	0.366
614	0.355
616	0.342
618	0.328
620	0.315
622	0.304
624	0.293
626	0.280
628	0.268
630	0.257
632	0.246
634	0.237
636	0.226
638	0.219
640	0.213
642	0.200
644	0.193
646	0.189
648	0.178
650	0.165
652	0.161
654	0.156
656	0.150
658	0.138
660	0.135
662	0.135
664	0.130
666	0.117
668	0.114
670	0.110
672	0.107
674	0.0986
676	0.0968
678	0.0961
680	0.0881
682	0.0857
684	0.0814
686	0.0772
688	0.0741
690	0.0702
692	0.0718
694	0.0702
696	0.0651
698	0.0601
700	0.0593
702	0.0560
704	0.0546
706	0.0500
708	0.0487
710	0.0491
712	0.0454
714	0.0370
716	0.0467
718	0.0465
720	0.0410
722	0.0348
724	0.0373
726	0.0385
728	0.0336
730	0.0221
732	0.0275
734	0.0254
736	0.0235
738	0.0274
740	0.0340
742	0.0338
744	0.0162
746	0.0262
748	0.0176
750	0.0118
752	0.0303
754	0.0390
756	0.0142
758	0.0263
760	0.0253
762	0.0171
764	0.0209
766	0.0184
768	0.0234
770	0.0325
772	0.0167
774	0.0120
776	0.0235
778	0.0250
780	0.00744